T100 WAVELENGTH,T100 POWER,BRISTOL WAVELENGTH,BRISTOL POWER
1465,-0.03,1466.2829,-0.620
1465.1,-0.03,1466.3703,-0.600
1465.2,-0.03,1466.4621,-0.600
1465.3,-0.02,1466.5534,-0.640
1465.4,-0.02,1466.6473,-0.620
1465.5,-0.03,1466.7378,-0.570
1465.6,-0.02,1466.8351,-0.690
1465.7,-0.03,1466.9365,-0.610
1465.8,-0.03,1467.0310,-0.610
1465.9,-0.03,1467.1338,-0.570
1466,-0.03,1467.2360,-0.530
1466.1,-0.03,1467.3346,-0.550
1466.2,-0.03,1467.4261,-0.610
1466.3,-0.03,1467.5307,-0.540
1466.4,-0.03,1467.6419,-0.610
1466.5,-0.03,1467.7485,-0.570
1466.6,-0.02,1467.8482,-0.630
1466.7,-0.03,1467.9510,-0.640
1466.8,-0.02,1468.0613,-0.560
1466.9,-0.03,1468.1740,-0.570
1467,-0.02,1468.2858,-0.810
1467.1,-0.03,1468.3962,-0.610
1467.2,-0.03,1468.5039,-0.600
1467.3,-0.03,1468.6176,-0.560
1467.4,-0.03,1468.7235,-0.550
1467.5,-0.03,1468.8323,-0.650
1467.6,-0.03,1468.9402,-0.630
1467.7,-0.03,1469.0371,-0.550
1467.8,-0.03,1469.1351,-0.510
1467.9,-0.03,1469.2394,-0.580
1468,-0.03,1469.3465,-0.560
1468.1,-0.03,1469.4510,-0.580
1468.2,-0.03,1469.5541,-0.530
1468.3,-0.03,1469.6550,-0.590
1468.4,-0.03,1469.7536,-0.520
1468.5,-0.03,1469.8499,-0.640
1468.6,-0.03,1469.9520,-0.670
1468.7,-0.03,1470.0570,-0.890
1468.8,-0.02,1470.1624,-0.690
1468.9,-0.03,1470.2731,-0.610
1469,-0.03,1470.3840,-0.680
1469.1,-0.03,1470.4829,-0.580
1469.2,-0.03,1470.5847,-0.610
1469.3,-0.03,1470.6829,-0.890
1469.4,-0.03,1470.7773,-0.590
1469.5,-0.03,1470.8756,-0.620
1469.6,-0.03,1470.9667,-0.610
1469.7,-0.02,1471.0543,-0.680
1469.8,-0.03,1471.1418,-0.630
1469.9,-0.03,1471.2307,-0.820
1470,-0.03,1471.3314,-0.670
1470.1,-0.02,1471.4335,-0.620
1470.2,-0.03,1471.5363,-0.490
1470.3,-0.03,1471.6306,-0.560
1470.4,-0.03,1471.7195,-0.750
1470.5,-0.03,1471.8027,-0.750
1470.6,-0.03,1471.8950,-0.550
1470.7,-0.03,1471.9887,-0.600
1470.8,-0.03,1472.0804,-0.610
1470.9,-0.03,1472.1681,-0.560
1471,-0.03,1472.2470,-0.650
1471.1,-0.03,1472.3293,-0.690
1471.2,-0.03,1472.4093,-0.540
1471.3,-0.03,1472.4930,-0.520
1471.4,-0.03,1472.5705,-0.650
1471.5,-0.02,1472.6417,-0.740
1471.6,-0.03,1472.7231,-0.610
1471.7,-0.03,1472.8107,-0.500
1471.8,-0.03,1472.9008,-0.700
1471.9,-0.03,1472.9887,-0.520
1472,-0.03,1473.0669,-0.560
1472.1,-0.03,1473.1414,-0.760
1472.2,-0.03,1473.2196,-0.650
1472.3,-0.03,1473.3061,-0.480
1472.4,-0.03,1473.3900,-0.590
1472.5,-0.03,1473.4771,-0.930
1472.6,-0.03,1473.5663,-0.580
1472.7,-0.02,1473.6536,-0.650
1472.8,-0.03,1473.7399,-0.700
1472.9,-0.03,1473.8242,-0.880
1473,-0.03,1473.9115,-0.610
1473.1,-0.03,1473.9978,-0.690
1473.2,-0.03,1474.0758,-0.660
1473.3,-0.03,1474.1555,-0.620
1473.4,-0.02,1474.2324,-0.600
1473.5,-0.02,1474.3152,-0.880
1473.6,-0.03,1474.3987,-0.660
1473.7,-0.02,1474.4864,-0.590
1473.8,-0.03,1474.5714,-0.610
1473.9,-0.03,1474.6518,-0.600
1474,-0.03,1474.7284,-0.580
1474.1,-0.03,1474.8093,-0.600
1474.2,-0.03,1474.8940,-0.680
1474.3,-0.02,1474.9767,-0.590
1474.4,-0.03,1475.0687,-0.540
1474.5,-0.03,1475.1642,-0.480
1474.6,-0.03,1475.2638,-0.530
1474.7,-0.03,1475.3657,-0.600
1474.8,-0.03,1475.4620,-0.390
1474.9,-0.03,1475.5620,-0.470
1475,-0.03,1475.6627,-0.430
1475.1,-0.03,1475.7654,-0.520
1475.2,-0.03,1475.8680,-0.520
1475.3,-0.03,1475.9641,-0.580
1475.4,-0.03,1476.0630,-0.480
1475.5,-0.03,1476.1652,-0.500
1475.6,-0.03,1476.2674,-0.480
1475.7,-0.03,1476.3692,-0.520
1475.8,-0.03,1476.4712,-0.490
1475.9,-0.03,1476.5698,-0.530
1476,-0.03,1476.6697,-0.470
1476.1,-0.03,1476.7707,-0.500
1476.2,-0.03,1476.8757,-0.480
1476.3,-0.03,1476.9790,-0.480
1476.4,-0.03,1477.0769,-0.550
1476.5,-0.03,1477.1775,-0.760
1476.6,-0.03,1477.2788,-0.610
1476.7,-0.03,1477.3791,-0.470
1476.8,-0.03,1477.4832,-0.480
1476.9,-0.03,1477.5845,-0.480
1477,-0.03,1477.6810,-0.540
1477.1,-0.03,1477.7808,-0.530
1477.2,-0.03,1477.8809,-0.460
1477.3,-0.03,1477.9821,-0.460
1477.4,-0.03,1478.0820,-0.440
1477.5,-0.03,1478.1819,-0.500
1477.6,-0.03,1478.2755,-0.500
1477.7,-0.03,1478.3756,-0.480
1477.8,-0.03,1478.4769,-0.460
1477.9,-0.03,1478.5779,-0.520
1478,-0.03,1478.6769,-0.590
1478.1,-0.03,1478.7749,-0.470
1478.2,-0.03,1478.8745,-0.460
1478.3,-0.02,1478.9746,-0.480
1478.4,-0.03,1479.0768,-0.470
1478.5,-0.03,1479.1755,-0.550
1478.6,-0.03,1479.2750,-0.470
1478.7,-0.03,1479.3697,-0.530
1478.8,-0.03,1479.4696,-0.570
1478.9,-0.03,1479.5719,-0.490
1479,-0.03,1479.6758,-0.510
1479.1,-0.03,1479.7755,-0.440
1479.2,-0.03,1479.8737,-0.470
1479.3,-0.03,1479.9728,-0.530
1479.4,-0.02,1480.0719,-0.540
1479.5,-0.03,1480.1736,-0.500
1479.6,-0.02,1480.2725,-0.460
1479.7,-0.03,1480.3734,-0.490
1479.8,-0.03,1480.4682,-0.540
1479.9,-0.03,1480.5675,-0.490
1480,-0.03,1480.6658,-0.520
1480.1,-0.02,1480.7664,-0.520
1480.2,-0.03,1480.8666,-0.550
1480.3,-0.03,1480.9644,-0.470
1480.4,-0.03,1481.0615,-0.450
1480.5,-0.03,1481.1623,-0.510
1480.6,-0.03,1481.2640,-0.570
1480.7,-0.03,1481.3638,-0.490
1480.8,-0.03,1481.4645,-0.440
1480.9,-0.03,1481.5606,-0.530
1481,-0.02,1481.6588,-0.560
1481.1,-0.02,1481.7574,-0.470
1481.2,-0.02,1481.8579,-0.470
1481.3,-0.03,1481.9579,-0.510
1481.4,-0.02,1482.0544,-0.520
1481.5,-0.03,1482.1510,-0.490
1481.6,-0.02,1482.2501,-0.500
1481.7,-0.03,1482.3551,-0.510
1481.8,-0.03,1482.4594,-0.530
1481.9,-0.02,1482.5585,-0.530
1482,-0.03,1482.6523,-0.440
1482.1,-0.02,1482.7528,-0.500
1482.2,-0.03,1482.8522,-0.570
1482.3,-0.02,1482.9532,-0.500
1482.4,-0.03,1483.0538,-0.420
1482.5,-0.03,1483.1542,-0.430
1482.6,-0.03,1483.2499,-0.520
1482.7,-0.03,1483.3481,-0.450
1482.8,-0.03,1483.4480,-0.460
1482.9,-0.03,1483.5488,-0.450
1483,-0.03,1483.6485,-0.770
1483.1,-0.03,1483.7433,-0.490
1483.2,-0.02,1483.8431,-0.480
1483.3,-0.03,1483.9439,-0.580
1483.4,-0.03,1484.0466,-0.770
1483.5,-0.03,1484.1471,-0.500
1483.6,-0.03,1484.2487,-0.450
1483.7,-0.03,1484.3420,-0.510
1483.8,-0.03,1484.4413,-0.480
1483.9,-0.03,1484.5424,-0.530
1484,-0.03,1484.6429,-0.420
1484.1,-0.03,1484.7421,-0.440
1484.2,-0.03,1484.8368,-0.520
1484.3,-0.03,1484.9367,-0.470
1484.4,-0.03,1485.0376,-0.490
1484.5,-0.03,1485.1389,-0.520
1484.6,-0.03,1485.2376,-0.490
1484.7,-0.03,1485.3352,-0.440
1484.8,-0.03,1485.4291,-0.800
1484.9,-0.03,1485.5282,-0.490
1485,-0.03,1485.6286,-0.450
1485.1,-0.03,1485.7282,-0.500
1485.2,-0.03,1485.8278,-0.780
1485.3,-0.03,1485.9254,-0.460
1485.4,-0.03,1486.0222,-0.460
1485.5,-0.03,1486.1238,-0.560
1485.6,-0.03,1486.2236,-0.490
1485.7,-0.03,1486.3259,-0.490
1485.8,-0.03,1486.4247,-0.480
1485.9,-0.03,1486.5221,-0.530
1486,-0.03,1486.6229,-0.560
1486.1,-0.03,1486.7247,-0.490
1486.2,-0.03,1486.8242,-0.480
1486.3,-0.03,1486.9239,-0.500
1486.4,-0.03,1487.0236,-0.560
1486.5,-0.03,1487.1235,-0.460
1486.6,-0.03,1487.2244,-0.400
1486.7,-0.03,1487.3249,-0.490
1486.8,-0.03,1487.4266,-0.560
1486.9,-0.03,1487.5283,-0.580
1487,-0.03,1487.6264,-0.450
1487.1,-0.02,1487.7281,-0.490
1487.2,-0.03,1487.8285,-0.600
1487.3,-0.03,1487.9285,-0.460
1487.4,-0.03,1488.0294,-0.480
1487.5,-0.03,1488.1276,-0.440
1487.6,-0.03,1488.2269,-0.560
1487.7,-0.03,1488.3258,-0.500
1487.8,-0.03,1488.4267,-0.430
1487.9,-0.03,1488.5266,-0.430
1488,-0.03,1488.6285,-0.580
1488.1,-0.03,1488.7282,-0.490
1488.2,-0.03,1488.8271,-0.480
1488.3,-0.03,1488.9269,-0.480
1488.4,-0.03,1489.0293,-0.570
1488.5,-0.03,1489.1309,-0.500
1488.6,-0.03,1489.2292,-0.480
1488.7,-0.02,1489.3299,-0.470
1488.8,-0.03,1489.4323,-0.570
1488.9,-0.03,1489.5318,-0.540
1489,-0.03,1489.6317,-0.430
1489.1,-0.03,1489.7323,-0.370
1489.2,-0.03,1489.8297,-0.790
1489.3,-0.03,1489.9303,-0.480
1489.4,-0.03,1490.0323,-0.430
1489.5,-0.03,1490.1345,-0.460
1489.6,-0.03,1490.2336,-0.560
1489.7,-0.03,1490.3323,-0.490
1489.8,-0.03,1490.4328,-0.500
1489.9,-0.03,1490.5328,-0.500
1490,-0.03,1490.6357,-0.480
1490.1,-0.03,1490.7372,-0.540
1490.2,-0.03,1490.8356,-0.510
1490.3,-0.03,1490.9347,-0.510
1490.4,-0.03,1491.0349,-0.790
1490.5,-0.03,1491.1354,-0.490
1490.6,-0.03,1491.2345,-0.460
1490.7,-0.03,1491.3373,-0.480
1490.8,-0.03,1491.4352,-0.580
1490.9,-0.03,1491.5340,-0.470
1491,-0.03,1491.6320,-0.510
1491.1,-0.03,1491.7336,-0.570
1491.2,-0.03,1491.8316,-0.510
1491.3,-0.03,1491.9314,-0.440
1491.4,-0.03,1492.0286,-0.530
1491.5,-0.03,1492.1271,-0.560
1491.6,-0.03,1492.2276,-0.460
1491.7,-0.03,1492.3286,-0.440
1491.8,-0.03,1492.4278,-0.580
1491.9,-0.03,1492.5271,-0.450
1492,-0.03,1492.6277,-0.440
1492.1,-0.03,1492.7295,-0.510
1492.2,-0.03,1492.8282,-0.500
1492.3,-0.03,1492.9281,-0.390
1492.4,-0.03,1493.0261,-0.500
1492.5,-0.03,1493.1265,-0.520
1492.6,-0.03,1493.2268,-0.530
1492.7,-0.03,1493.3272,-0.470
1492.8,-0.03,1493.4264,-0.490
1492.9,-0.03,1493.5281,-0.570
1493,-0.03,1493.6266,-0.420
1493.1,-0.03,1493.7274,-0.480
1493.2,-0.03,1493.8299,-0.530
1493.3,-0.03,1493.9325,-0.580
1493.4,-0.03,1494.0314,-0.470
1493.5,-0.03,1494.1313,-0.460
1493.6,-0.03,1494.2314,-0.460
1493.7,-0.03,1494.3350,-0.590
1493.8,-0.03,1494.4330,-0.440
1493.9,-0.03,1494.5351,-0.430
1494,-0.03,1494.6346,-0.570
1494.1,-0.03,1494.7351,-0.500
1494.2,-0.03,1494.8354,-0.440
1494.3,-0.03,1494.9374,-0.520
1494.4,-0.03,1495.0386,-0.550
1494.5,-0.03,1495.1390,-0.520
1494.6,-0.03,1495.2358,-0.480
1494.7,-0.03,1495.3365,-0.550
1494.8,-0.03,1495.4363,-0.530
1494.9,-0.03,1495.5384,-0.490
1495,-0.03,1495.6385,-0.490
1495.1,-0.03,1495.7390,-0.750
1495.2,-0.03,1495.8377,-0.430
1495.3,-0.03,1495.9394,-0.470
1495.4,-0.03,1496.0414,-0.480
1495.5,-0.03,1496.1420,-0.550
1495.6,-0.03,1496.2439,-0.490
1495.7,-0.03,1496.3438,-0.420
1495.8,-0.03,1496.4416,-0.550
1495.9,-0.03,1496.5407,-0.470
1496,-0.03,1496.6397,-0.520
1496.1,-0.03,1496.7422,-0.490
1496.2,-0.03,1496.8423,-0.520
1496.3,-0.02,1496.9427,-0.450
1496.4,-0.03,1497.0403,-0.460
1496.5,-0.03,1497.1424,-0.820
1496.6,-0.02,1497.2429,-0.400
1496.7,-0.03,1497.3420,-0.450
1496.8,-0.03,1497.4410,-0.570
1496.9,-0.03,1497.5406,-0.500
1497,-0.03,1497.6412,-0.470
1497.1,-0.03,1497.7408,-0.500
1497.2,-0.03,1497.8404,-0.520
1497.3,-0.03,1497.9395,-0.490
1497.4,-0.03,1498.0382,-0.510
1497.5,-0.03,1498.1386,-0.510
1497.6,-0.02,1498.2407,-0.510
1497.7,-0.03,1498.3408,-0.490
1497.8,-0.03,1498.4403,-0.800
1497.9,-0.03,1498.5405,-0.520
1498,-0.03,1498.6429,-0.470
1498.1,-0.03,1498.7436,-0.540
1498.2,-0.03,1498.8439,-0.560
1498.3,-0.02,1498.9438,-0.430
1498.4,-0.03,1499.0446,-0.490
1498.5,-0.03,1499.1426,-0.520
1498.6,-0.03,1499.2438,-0.420
1498.7,-0.02,1499.3455,-0.450
1498.8,-0.03,1499.4456,-0.520
1498.9,-0.02,1499.5461,-0.530
1499,-0.03,1499.6443,-0.460
1499.1,-0.02,1499.7446,-0.500
1499.2,-0.02,1499.8454,-0.570
1499.3,-0.02,1499.9449,-0.430
1499.4,-0.03,1500.0456,-0.480
1499.5,-0.03,1500.1450,-0.570
1499.6,-0.03,1500.2430,-0.430
1499.7,-0.03,1500.3411,-0.460
1499.8,-0.03,1500.4410,-0.480
1499.9,-0.03,1500.5424,-0.460
1500,-0.03,1500.6432,-0.500
1500.1,-0.03,1500.7360,-0.470
1500.2,-0.03,1500.8368,-0.460
1500.3,-0.03,1500.9391,-0.520
1500.4,-0.03,1501.0393,-0.520
1500.5,-0.03,1501.1394,-0.450
1500.6,-0.03,1501.2394,-0.460
1500.7,-0.03,1501.3360,-0.470
1500.8,-0.02,1501.4336,-0.460
1500.9,-0.03,1501.5348,-0.520
1501,-0.03,1501.6360,-0.480
1501.1,-0.03,1501.7367,-0.400
1501.2,-0.03,1501.8356,-0.500
1501.3,-0.03,1501.9325,-0.380
1501.4,-0.03,1502.0354,-0.480
1501.5,-0.03,1502.1371,-0.500
1501.6,-0.03,1502.2352,-0.520
1501.7,-0.03,1502.3325,-0.450
1501.8,-0.03,1502.4345,-0.490
1501.9,-0.03,1502.5354,-0.520
1502,-0.03,1502.6354,-0.480
1502.1,-0.03,1502.7341,-0.510
1502.2,-0.03,1502.8347,-0.510
1502.3,-0.02,1502.9326,-0.430
1502.4,-0.03,1503.0326,-0.500
1502.5,-0.03,1503.1323,-0.460
1502.6,-0.02,1503.2342,-0.450
1502.7,-0.03,1503.3344,-0.480
1502.8,-0.03,1503.4364,-0.780
1502.9,-0.03,1503.5346,-0.360
1503,-0.03,1503.6331,-0.490
1503.1,-0.03,1503.7325,-0.500
1503.2,-0.03,1503.8329,-0.510
1503.3,-0.03,1503.9300,-0.500
1503.4,-0.03,1504.0231,-0.450
1503.5,-0.03,1504.1225,-0.520
1503.6,-0.03,1504.2235,-0.520
1503.7,-0.03,1504.3215,-0.480
1503.8,-0.03,1504.4217,-0.530
1503.9,-0.03,1504.5220,-0.530
1504,-0.03,1504.6223,-0.450
1504.1,-0.03,1504.7206,-0.530
1504.2,-0.03,1504.8196,-0.450
1504.3,-0.03,1504.9208,-0.480
1504.4,-0.02,1505.0203,-0.480
1504.5,-0.03,1505.1175,-0.440
1504.6,-0.03,1505.2163,-0.480
1504.7,-0.03,1505.3165,-0.570
1504.8,-0.03,1505.4162,-0.430
1504.9,-0.03,1505.5159,-0.490
1505,-0.03,1505.6145,-0.480
1505.1,-0.03,1505.7115,-0.510
1505.2,-0.03,1505.8123,-0.530
1505.3,-0.03,1505.9116,-0.420
1505.4,-0.03,1506.0131,-0.450
1505.5,-0.03,1506.1121,-0.550
1505.6,-0.03,1506.2104,-0.480
1505.7,-0.03,1506.3086,-0.510
1505.8,-0.02,1506.4093,-0.590
1505.9,-0.03,1506.5099,-0.450
1506,-0.03,1506.6109,-0.500
1506.1,-0.03,1506.7135,-0.560
1506.2,-0.03,1506.8131,-0.490
1506.3,-0.03,1506.9128,-0.520
1506.4,-0.03,1507.0118,-0.570
1506.5,-0.03,1507.1109,-0.450
1506.6,-0.03,1507.2108,-0.520
1506.7,-0.03,1507.3102,-0.550
1506.8,-0.03,1507.4145,-0.480
1506.9,-0.03,1507.5148,-0.450
1507,-0.03,1507.6138,-0.490
1507.1,-0.03,1507.7142,-0.500
1507.2,-0.03,1507.8115,-0.510
1507.3,-0.02,1507.9121,-0.490
1507.4,-0.03,1508.0108,-0.430
1507.5,-0.03,1508.1146,-0.470
1507.6,-0.03,1508.2139,-0.400
1507.7,-0.03,1508.3133,-0.480
1507.8,-0.03,1508.4123,-0.550
1507.9,-0.03,1508.5111,-0.510
1508,-0.03,1508.6100,-0.480
1508.1,-0.03,1508.7120,-0.540
1508.2,-0.03,1508.8115,-0.480
1508.3,-0.03,1508.9107,-0.510
1508.4,-0.03,1509.0123,-0.590
1508.5,-0.03,1509.1119,-0.500
1508.6,-0.03,1509.2119,-0.520
1508.7,-0.03,1509.3121,-0.500
1508.8,-0.02,1509.4132,-0.500
1508.9,-0.03,1509.5099,-0.580
1509,-0.03,1509.6156,-0.530
1509.1,-0.03,1509.7163,-0.460
1509.2,-0.03,1509.8161,-0.490
1509.3,-0.03,1509.9139,-0.500
1509.4,-0.03,1510.0115,-0.470
1509.5,-0.03,1510.1112,-0.560
1509.6,-0.03,1510.2122,-0.500
1509.7,-0.03,1510.3151,-0.440
1509.8,-0.03,1510.4140,-0.550
1509.9,-0.03,1510.5135,-0.430
1510,-0.03,1510.6118,-0.540
1510.1,-0.03,1510.7116,-0.510
1510.2,-0.03,1510.8104,-0.480
1510.3,-0.03,1510.9113,-0.760
1510.4,-0.03,1511.0156,-0.520
1510.5,-0.03,1511.1130,-0.480
1510.6,-0.03,1511.2141,-0.560
1510.7,-0.03,1511.3181,-0.540
1510.8,-0.02,1511.4173,-0.500
1510.9,-0.03,1511.5158,-0.760
1511,-0.03,1511.6131,-0.470
1511.1,-0.03,1511.7164,-0.450
1511.2,-0.03,1511.8170,-0.560
1511.3,-0.03,1511.9169,-0.450
1511.4,-0.03,1512.0186,-0.510
1511.5,-0.03,1512.1175,-0.470
1511.6,-0.03,1512.2174,-0.480
1511.7,-0.03,1512.3174,-0.540
1511.8,-0.03,1512.4232,-0.510
1511.9,-0.03,1512.5213,-0.470
1512,-0.03,1512.6201,-0.540
1512.1,-0.03,1512.7189,-0.430
1512.2,-0.03,1512.8213,-0.440
1512.3,-0.03,1512.9239,-0.540
1512.4,-0.03,1513.0249,-0.520
1512.5,-0.03,1513.1282,-0.500
1512.6,-0.03,1513.2278,-0.580
1512.7,-0.03,1513.3256,-0.480
1512.8,-0.03,1513.4240,-0.500
1512.9,-0.03,1513.5239,-0.500
1513,-0.03,1513.6237,-0.480
1513.1,-0.03,1513.7247,-0.560
1513.2,-0.03,1513.8211,-0.470
1513.3,-0.03,1513.9268,-0.410
1513.4,-0.03,1514.0278,-0.540
1513.5,-0.02,1514.1275,-0.490
1513.6,-0.03,1514.2262,-0.460
1513.7,-0.03,1514.3266,-0.540
1513.8,-0.03,1514.4274,-0.400
1513.9,-0.03,1514.5263,-0.510
1514,-0.02,1514.6290,-0.490
1514.1,-0.03,1514.7307,-0.480
1514.2,-0.03,1514.8330,-0.540
1514.3,-0.03,1514.9300,-0.510
1514.4,-0.03,1515.0295,-0.440
1514.5,-0.02,1515.1299,-0.560
1514.6,-0.03,1515.2322,-0.460
1514.7,-0.02,1515.3363,-0.430
1514.8,-0.03,1515.4345,-0.580
1514.9,-0.02,1515.5336,-0.400
1515,-0.03,1515.6348,-0.480
1515.1,-0.03,1515.7332,-0.470
1515.2,-0.03,1515.8339,-0.430
1515.3,-0.03,1515.9337,-0.570
1515.4,-0.03,1516.0342,-0.450
1515.5,-0.03,1516.1330,-0.460
1515.6,-0.03,1516.2348,-0.470
1515.7,-0.03,1516.3360,-0.450
1515.8,-0.03,1516.4345,-0.750
1515.9,-0.02,1516.5334,-0.430
1516,-0.02,1516.6382,-0.430
1516.1,-0.03,1516.7378,-0.530
1516.2,-0.03,1516.8384,-0.450
1516.3,-0.03,1516.9379,-0.500
1516.4,-0.03,1517.0351,-0.440
1516.5,-0.03,1517.1328,-0.520
1516.6,-0.03,1517.2347,-0.550
1516.7,-0.03,1517.3334,-0.480
1516.8,-0.03,1517.4313,-0.530
1516.9,-0.03,1517.5286,-0.430
1517,-0.03,1517.6258,-0.590
1517.1,-0.03,1517.7235,-0.450
1517.2,-0.03,1517.8284,-0.420
1517.3,-0.02,1517.9267,-0.490
1517.4,-0.03,1518.0247,-0.460
1517.5,-0.03,1518.1243,-0.540
1517.6,-0.03,1518.2225,-0.450
1517.7,-0.03,1518.3213,-0.710
1517.8,-0.03,1518.4209,-0.430
1517.9,-0.03,1518.5250,-0.460
1518,-0.03,1518.6233,-0.490
1518.1,-0.03,1518.7194,-0.440
1518.2,-0.03,1518.8176,-0.470
1518.3,-0.03,1518.9188,-0.400
1518.4,-0.03,1519.0170,-0.550
1518.5,-0.03,1519.1225,-0.500
1518.6,-0.03,1519.2221,-0.450
1518.7,-0.03,1519.3203,-0.500
1518.8,-0.03,1519.4187,-0.420
1518.9,-0.03,1519.5178,-0.550
1519,-0.03,1519.6187,-0.480
1519.1,-0.03,1519.7200,-0.420
1519.2,-0.03,1519.8173,-0.470
1519.3,-0.03,1519.9159,-0.460
1519.4,-0.03,1520.0191,-0.570
1519.5,-0.03,1520.1193,-0.460
1519.6,-0.02,1520.2226,-0.480
1519.7,-0.03,1520.3264,-0.460
1519.8,-0.03,1520.4257,-0.460
1519.9,-0.03,1520.5255,-0.430
1520,-0.03,1520.6249,-0.490
1520.1,-0.03,1520.7262,-0.400
1520.2,-0.03,1520.8265,-0.480
1520.3,-0.03,1520.9246,-0.360
1520.4,-0.03,1521.0284,-0.450
1520.5,-0.03,1521.1290,-0.470
1520.6,-0.03,1521.2283,-0.420
1520.7,-0.03,1521.3289,-0.530
1520.8,-0.03,1521.4269,-0.400
1520.9,-0.03,1521.5265,-0.470
1521,-0.03,1521.6321,-0.560
1521.1,-0.03,1521.7323,-0.350
1521.2,-0.03,1521.8307,-0.480
1521.3,-0.03,1521.9280,-0.450
1521.4,-0.03,1522.0274,-0.490
1521.5,-0.03,1522.1278,-0.440
1521.6,-0.03,1522.2322,-0.400
1521.7,-0.03,1522.3330,-0.680
1521.8,-0.03,1522.4327,-0.350
1521.9,-0.03,1522.5296,-0.570
1522,-0.03,1522.6310,-0.490
1522.1,-0.03,1522.7301,-0.430
1522.2,-0.03,1522.8357,-0.730
1522.3,-0.03,1522.9352,-0.430
1522.4,-0.03,1523.0342,-0.520
1522.5,-0.03,1523.1334,-0.430
1522.6,-0.03,1523.2326,-0.470
1522.7,-0.03,1523.3310,-0.470
1522.8,-0.03,1523.4292,-0.430
1522.9,-0.03,1523.5283,-0.430
1523,-0.03,1523.6229,-0.450
1523.1,-0.02,1523.7224,-0.440
1523.2,-0.03,1523.8233,-0.440
1523.3,-0.03,1523.9209,-0.440
1523.4,-0.03,1524.0170,-0.480
1523.5,-0.03,1524.1193,-0.470
1523.6,-0.03,1524.2186,-0.480
1523.7,-0.03,1524.3179,-0.540
1523.8,-0.03,1524.4165,-0.420
1523.9,-0.03,1524.5150,-0.660
1524,-0.03,1524.6138,-0.420
1524.1,-0.03,1524.7147,-0.460
1524.2,-0.03,1524.8136,-0.410
1524.3,-0.03,1524.9134,-0.460
1524.4,-0.03,1525.0136,-0.490
1524.5,-0.03,1525.1108,-0.450
1524.6,-0.02,1525.2090,-0.460
1524.7,-0.03,1525.3114,-0.400
1524.8,-0.03,1525.4094,-0.490
1524.9,-0.03,1525.5072,-0.400
1525,-0.03,1525.6038,-0.480
1525.1,-0.03,1525.7012,-0.440
1525.2,-0.03,1525.8024,-0.520
1525.3,-0.03,1525.9022,-0.450
1525.4,-0.03,1526.0005,-0.700
1525.5,-0.03,1526.1042,-0.460
1525.6,-0.03,1526.2030,-0.510
1525.7,-0.03,1526.3007,-0.370
1525.8,-0.03,1526.4013,-0.420
1525.9,-0.03,1526.5011,-0.470
1526,-0.03,1526.6027,-0.400
1526.1,-0.03,1526.7076,-0.500
1526.2,-0.03,1526.8053,-0.430
1526.3,-0.03,1526.9044,-0.490
1526.4,-0.03,1527.0084,-0.520
1526.5,-0.03,1527.1080,-0.430
1526.6,-0.03,1527.2054,-0.450
1526.7,-0.03,1527.3110,-0.360
1526.8,-0.03,1527.4084,-0.440
1526.9,-0.03,1527.5077,-0.410
1527,-0.03,1527.6108,-0.440
1527.1,-0.03,1527.7079,-0.450
1527.2,-0.03,1527.8065,-0.430
1527.3,-0.03,1527.9072,-0.480
1527.4,-0.03,1527.9727,-0.450
1527.5,-0.03,1528.0759,-0.430
1527.6,-0.03,1528.1743,-0.410
1527.7,-0.03,1528.2746,-0.470
1527.8,-0.03,1528.3766,-0.370
1527.9,-0.03,1528.4762,-0.450
1528,-0.02,1528.5799,-0.390
1528.1,-0.03,1528.6834,-0.380
1528.2,-0.03,1528.7832,-0.500
1528.3,-0.03,1528.8823,-0.350
1528.4,-0.03,1528.9850,-0.440
1528.5,-0.03,1529.0856,-0.410
1528.6,-0.03,1529.1856,-0.380
1528.7,-0.03,1529.2883,-0.440
1528.8,-0.03,1529.3864,-0.380
1528.9,-0.02,1529.4847,-0.480
1529,-0.03,1529.5878,-0.390
1529.1,-0.03,1529.6850,-0.520
1529.2,-0.03,1529.7811,-0.410
1529.3,-0.03,1529.8842,-0.730
1529.4,-0.03,1529.9835,-0.350
1529.5,-0.03,1530.0798,-0.500
1529.6,-0.03,1530.1837,-0.400
1529.7,-0.03,1530.2823,-0.440
1529.8,-0.03,1530.3788,-0.350
1529.9,-0.03,1530.4800,-0.440
1530,-0.03,1530.5767,-0.400
1530.1,-0.02,1530.6768,-0.430
1530.2,-0.03,1530.7819,-0.420
1530.3,-0.03,1530.8817,-0.360
1530.4,-0.03,1530.9801,-0.450
1530.5,-0.03,1531.0794,-0.380
1530.6,-0.03,1531.1772,-0.370
1530.7,-0.03,1531.2747,-0.350
1530.8,-0.03,1531.3774,-0.500
1530.9,-0.03,1531.4784,-0.370
1531,-0.03,1531.5781,-0.700
1531.1,-0.03,1531.6773,-0.350
1531.2,-0.03,1531.7748,-0.450
1531.3,-0.03,1531.8746,-0.350
1531.4,-0.03,1531.9770,-0.450
1531.5,-0.03,1532.0780,-0.340
1531.6,-0.03,1532.1774,-0.400
1531.7,-0.03,1532.2785,-0.330
1531.8,-0.03,1532.3773,-0.380
